#  ----------------------------------------------------------------------------------
# SpeX prism spectrum of SDSS J205235.31-160929.8 (J20523515-1609308)
# Originally observed on 2005 Aug 12
# Average resolution = 120
# Originally published in Chiu et al. (2006) AJ 131, 2722
#
# PLEASE CITE THE ORIGINAL DATA REFERENCE WHEN PUBLISHING OR PRESENTING THESE DATA
#
# Near infrared spectral type: T1+/-1
# J magnitude = 16.334
# H magnitude = 15.414
# Ks magnitude = 15.123
#
#  Wavelength (micron)   F_lambda (normalized)  Noise (normalized as F_lambda)
#  ----------------------------------------------------------------------------------
0.800611	-0.00792851	0.0765167
0.803404	0.113297	0.100757
0.806215	0.0648097	0.0189585
0.809046	0.00144653	0.0346578
0.811897	0.124106	0.0557083
0.814767	0.0379362	0.0711468
0.817656	0.0430769	0.0369778
0.820566	0.0386033	0.0508778
0.823495	0.0977551	0.0476787
0.826443	0.0520699	0.0427968
0.829412	0.124030	0.00501098
0.832400	0.154363	0.0116342
0.835408	0.0967675	0.0249516
0.838435	0.134715	0.0919812
0.841483	0.152512	0.000634057
0.844549	0.158216	0.0959333
0.847636	0.149769	0.0320680
0.850742	0.153232	0.0101871
0.853868	0.198227	0.0508582
0.857013	0.190008	0.0336029
0.860178	0.0985074	0.0336446
0.863362	0.128106	0.0680384
0.866566	0.181012	0.0653272
0.869788	0.222417	0.0109375
0.873030	0.216607	0.0829525
0.876292	0.186197	0.0876647
0.879572	0.256319	0.0411942
0.882871	0.182901	0.0831081
0.886189	0.251542	0.0530166
0.889526	0.223964	0.0967373
0.892881	0.232058	0.0690477
0.896255	0.219988	0.0565647
0.899648	0.260132	0.0758217
0.903058	0.269042	0.0626958
0.906487	0.340494	0.0575840
0.909934	0.306536	0.101486
0.913399	0.308407	0.0539668
0.916882	0.353470	0.0818870
0.920383	0.330779	0.0715339
0.923901	0.282492	0.108609
0.927436	0.385137	0.0670317
0.930989	0.412767	0.0667092
0.934558	0.403844	0.106463
0.938145	0.386311	0.0861246
0.941748	0.397289	0.0698986
0.945368	0.430638	0.0927835
0.949005	0.439492	0.0391116
0.952658	0.388630	0.116181
0.956326	0.463273	0.0848271
0.960011	0.417977	0.0823733
0.963712	0.483279	0.0462964
0.967428	0.506409	0.0673143
0.971160	0.535746	0.0841084
0.974906	0.519281	0.0970445
0.978668	0.563927	0.0922958
0.982445	0.575511	0.0849165
0.986236	0.563894	0.0712283
0.990042	0.548352	0.0560677
0.993863	0.467761	0.0726520
0.997697	0.482825	0.0689679
1.00155	0.506326	0.0941067
1.00541	0.582105	0.140307
1.00928	0.596716	0.0976846
1.01317	0.575494	0.0672262
1.01707	0.597243	0.0928738
1.02099	0.587875	0.119180
1.02492	0.608517	0.102248
1.02886	0.634457	0.125388
1.03281	0.643099	0.137686
1.03677	0.694055	0.132484
1.04075	0.720548	0.163920
1.04474	0.712445	0.108901
1.04874	0.740116	0.126764
1.05275	0.688989	0.151056
1.05677	0.732110	0.178053
1.06080	0.759322	0.130081
1.06485	0.768357	0.183290
1.06890	0.773954	0.171625
1.07296	0.791888	0.157442
1.07704	0.794353	0.175145
1.08112	0.803263	0.147303
1.08521	0.799998	0.140085
1.08932	0.833973	0.170090
1.09343	0.785443	0.126535
1.09755	0.742693	0.117049
1.10168	0.724607	0.142135
1.10582	0.644117	0.131492
1.10997	0.638252	0.150197
1.11412	0.645077	0.138927
1.11828	0.601448	0.145254
1.12245	0.612251	0.141176
1.12663	0.668991	0.134161
1.13082	0.627883	0.112972
1.13501	0.648288	0.104535
1.13921	0.597802	0.117911
1.14341	0.653943	0.101375
1.14763	0.690208	0.148552
1.15185	0.699326	0.140062
1.15607	0.691802	0.131978
1.16030	0.710432	0.135072
1.16454	0.657789	0.129138
1.16878	0.638813	0.179639
1.17303	0.598533	0.142032
1.17728	0.645764	0.157053
1.18154	0.691665	0.147977
1.18580	0.744657	0.187995
1.19006	0.719595	0.154295
1.19433	0.814059	0.149875
1.19861	0.768300	0.180666
1.20289	0.784830	0.168678
1.20717	0.841162	0.106485
1.21145	0.890273	0.162214
1.21574	0.866108	0.210273
1.22003	0.897305	0.194825
1.22433	0.945897	0.219106
1.22863	0.913173	0.201731
1.23293	0.955437	0.194383
1.23723	0.916182	0.176278
1.24153	0.853965	0.165980
1.24584	0.899795	0.202451
1.25015	0.884878	0.192747
1.25446	0.917694	0.199685
1.25877	0.948268	0.198689
1.26309	1.00071	0.214838
1.26740	0.991556	0.225602
1.27172	0.986381	0.219112
1.27603	1.04720	0.199829
1.28035	1.02901	0.254538
1.28467	1.01017	0.229759
1.28899	1.02405	0.231116
1.29330	1.00907	0.242160
1.29762	0.962979	0.216626
1.30194	0.964648	0.195841
1.30626	0.974217	0.166612
1.31057	0.981177	0.240218
1.31489	0.972058	0.213176
1.31921	0.907258	0.172657
1.32352	0.863158	0.176423
1.32784	0.738556	0.154793
1.33215	0.562706	0.123224
1.33646	0.427900	0.101608
1.34077	0.345165	0.0954017
1.34508	0.313860	0.0727066
1.34939	0.303350	0.0728275
1.35369	0.265745	0.0516712
1.35799	0.314291	0.0769830
1.36229	0.267109	0.0530200
1.36659	0.283152	0.0921045
1.37089	0.354719	0.100478
1.37518	0.340987	0.0919431
1.37947	0.393087	0.0632204
1.38376	0.346258	0.120712
1.38805	0.325285	0.0593348
1.39233	0.319701	0.0622457
1.39661	0.334798	0.0321610
1.40089	0.270610	0.0514907
1.40516	0.349141	0.0559107
1.40943	0.262711	0.102985
1.41369	0.243899	0.0524597
1.41796	0.324081	0.0616949
1.42221	0.272875	0.0816927
1.42647	0.270694	0.0425104
1.43072	0.295536	0.0791895
1.43497	0.308944	0.0572214
1.43921	0.295836	0.106594
1.44345	0.279730	0.0406399
1.44768	0.313366	0.0382144
1.45191	0.349919	0.0702189
1.45614	0.442891	0.0839229
1.46036	0.414261	0.0655768
1.46457	0.399190	0.0495169
1.46878	0.424352	0.0568940
1.47299	0.404314	0.0739854
1.47719	0.442599	0.0724915
1.48139	0.447194	0.104770
1.48558	0.453701	0.0782368
1.48977	0.466080	0.100174
1.49395	0.476694	0.0849074
1.49812	0.503289	0.127658
1.50229	0.507695	0.125360
1.50646	0.514950	0.0920673
1.51062	0.605881	0.167968
1.51477	0.560935	0.109923
1.51892	0.598947	0.137644
1.52306	0.667574	0.129436
1.52720	0.654390	0.154546
1.53133	0.702719	0.155946
1.53546	0.706738	0.147111
1.53958	0.707179	0.126014
1.54369	0.692165	0.125126
1.54780	0.725805	0.132505
1.55190	0.726199	0.145811
1.55600	0.747919	0.163678
1.56009	0.746863	0.136495
1.56418	0.759425	0.165451
1.56825	0.787096	0.155832
1.57233	0.790882	0.181748
1.57639	0.778592	0.166466
1.58045	0.778359	0.175670
1.58450	0.799272	0.201499
1.58855	0.812644	0.180864
1.59259	0.792882	0.152981
1.59663	0.823176	0.166419
1.60065	0.836972	0.122109
1.60468	0.868351	0.161988
1.60869	0.752652	0.145119
1.61270	0.782996	0.125383
1.61670	0.778418	0.196595
1.62070	0.762238	0.169614
1.62469	0.729288	0.136951
1.62867	0.742999	0.153606
1.63265	0.702319	0.150820
1.63662	0.703145	0.159916
1.64058	0.766807	0.100629
1.64454	0.828050	0.171885
1.64849	0.787874	0.156048
1.65243	0.796609	0.157617
1.65637	0.722350	0.194578
1.66030	0.741980	0.166177
1.66422	0.740331	0.184619
1.66814	0.708451	0.111463
1.67205	0.711540	0.135349
1.67596	0.712161	0.146912
1.67985	0.723544	0.168959
1.68375	0.714634	0.142723
1.68763	0.724787	0.153271
1.69151	0.741257	0.191301
1.69538	0.703108	0.156644
1.69925	0.732311	0.180135
1.70310	0.702530	0.157708
1.70696	0.676204	0.132018
1.71080	0.654819	0.128265
1.71464	0.643500	0.167487
1.71847	0.598277	0.123974
1.72230	0.628042	0.129305
1.72612	0.643985	0.124141
1.72993	0.613289	0.109236
1.73374	0.564781	0.127608
1.73754	0.555182	0.103587
1.74133	0.570590	0.101944
1.74512	0.527175	0.0884298
1.74890	0.510497	0.0963523
1.75268	0.458285	0.105489
1.75644	0.470567	0.117753
1.76021	0.430771	0.0747087
1.76396	0.422182	0.0458618
1.76771	0.425028	0.0543431
1.77145	0.420334	0.0820234
1.77519	0.365873	0.0952841
1.77892	0.340144	0.0917808
1.78265	0.355166	0.0776380
1.78637	0.313386	0.0847923
1.79008	0.334263	0.0661684
1.79378	0.307080	0.0190109
1.79748	0.351257	0.0517279
1.80118	0.313521	0.0502407
1.80487	0.299718	0.0726157
1.80855	0.324461	0.0730088
1.81222	0.287619	0.0529624
1.81589	0.298387	0.0661942
1.81956	0.349975	0.0564365
1.82322	0.302494	0.0599088
1.82687	0.344197	0.0575481
1.83052	0.309272	0.0594867
1.83416	0.295708	0.0649989
1.83779	0.271745	0.0997563
1.84142	0.250366	0.0305553
1.84504	0.246381	0.0935503
1.84866	0.333502	0.0627625
1.85227	0.227772	0.0897050
1.85588	0.293769	0.0614717
1.85948	0.226545	0.0710885
1.86308	0.207986	0.0509343
1.86667	0.231346	0.0241244
1.87025	0.295931	0.0944172
1.87383	0.284433	0.0323971
1.87740	0.252664	0.0743037
1.88097	0.271008	0.0443428
1.88453	0.307801	0.0805380
1.88809	0.300992	0.0737476
1.89164	0.306215	0.0723379
1.89518	0.303488	0.0868392
1.89872	0.313387	0.0772637
1.90226	0.314086	0.0866570
1.90579	0.354223	0.0705074
1.90932	0.341341	0.0686586
1.91283	0.360312	0.0799124
1.91635	0.322132	0.0972896
1.91986	0.397437	0.0536452
1.92336	0.379381	0.0689494
1.92686	0.307361	0.0486703
1.93036	0.301392	0.0471481
1.93384	0.270159	0.0702363
1.93733	0.244822	0.0607870
1.94081	0.258432	0.0588388
1.94428	0.254596	0.0579985
1.94775	0.262835	0.0609385
1.95121	0.277799	0.0570271
1.95467	0.226460	0.0566072
1.95813	0.227542	0.0744072
1.96158	0.255795	0.0256048
1.96502	0.290220	0.0490421
1.96846	0.260576	0.0779395
1.97189	0.272918	0.0649937
1.97532	0.253068	0.0610705
1.97875	0.283013	0.0596622
1.98217	0.287674	0.0606321
1.98559	0.261067	0.0609877
1.98900	0.260518	0.0840032
1.99240	0.290358	0.0709854
1.99580	0.289688	0.0691401
1.99920	0.287087	0.0587066
2.00259	0.324176	0.0531013
2.00598	0.324566	0.0726264
2.00936	0.272229	0.0256056
2.01274	0.307570	0.0512564
2.01611	0.295507	0.0805150
2.01948	0.354042	0.0743434
2.02285	0.368654	0.101453
2.02621	0.361021	0.0914074
2.02956	0.343415	0.111886
2.03291	0.348726	0.0680103
2.03626	0.378294	0.0604910
2.03960	0.372353	0.0866024
2.04294	0.372469	0.101766
2.04627	0.407314	0.0876904
2.04960	0.370660	0.0657359
2.05292	0.390827	0.0628970
2.05624	0.424039	0.0691083
2.05955	0.423501	0.109480
2.06286	0.394656	0.114839
2.06617	0.395844	0.119414
2.06947	0.411678	0.107203
2.07277	0.417470	0.120871
2.07606	0.384234	0.114844
2.07934	0.402441	0.121418
2.08263	0.394478	0.0675633
2.08591	0.411117	0.115395
2.08918	0.418368	0.0879702
2.09245	0.404072	0.110973
2.09571	0.410354	0.128583
2.09897	0.381705	0.0891146
2.10223	0.403948	0.0742123
2.10548	0.431959	0.123182
2.10873	0.410744	0.116153
2.11197	0.398255	0.116658
2.11520	0.384015	0.0980762
2.11844	0.402757	0.116023
2.12167	0.445872	0.108713
2.12489	0.393665	0.124087
2.12811	0.399012	0.0990806
2.13132	0.406092	0.126461
2.13453	0.389246	0.122586
2.13774	0.390038	0.110313
2.14094	0.352997	0.103125
2.14413	0.363155	0.138693
2.14732	0.399138	0.101864
2.15051	0.394622	0.103438
2.15369	0.395356	0.0798457
2.15687	0.360767	0.0952460
2.16004	0.377595	0.109372
2.16321	0.355775	0.0959979
2.16637	0.371822	0.114093
2.16953	0.379478	0.107818
2.17268	0.374077	0.106722
2.17583	0.351074	0.0936885
2.17898	0.378743	0.0875521
2.18212	0.392050	0.0853024
2.18525	0.356566	0.0843063
2.18838	0.336913	0.0918818
2.19150	0.357915	0.107159
2.19462	0.358709	0.0805682
2.19774	0.371216	0.0453698
2.20085	0.322543	0.0684753
2.20395	0.294698	0.0815944
2.20705	0.315041	0.0749981
2.21015	0.308461	0.0803151
2.21324	0.342836	0.104728
2.21632	0.371275	0.0688035
2.21940	0.323262	0.102809
2.22248	0.315173	0.0799843
2.22555	0.316513	0.0921931
2.22861	0.307257	0.0749471
2.23167	0.315298	0.0923414
2.23473	0.315340	0.0985755
2.23778	0.306373	0.108487
2.24082	0.298129	0.0889614
2.24386	0.294245	0.108445
2.24690	0.291989	0.0767586
2.24992	0.296768	0.0731193
2.25295	0.308880	0.0738173
2.25597	0.325886	0.0854523
2.25898	0.273548	0.0759617
2.26199	0.274245	0.0725205
2.26499	0.278744	0.0693575
2.26799	0.270976	0.0763359
2.27099	0.275091	0.0723862
2.27397	0.273749	0.0810334
2.27696	0.277755	0.0719609
2.27993	0.270414	0.0921418
2.28291	0.298759	0.0867092
2.28587	0.268024	0.0944983
2.28883	0.285676	0.0878162
2.29179	0.266076	0.0661850
2.29474	0.236488	0.0680929
2.29769	0.243987	0.0792431
2.30063	0.241984	0.0737018
2.30357	0.238180	0.0834741
2.30650	0.245101	0.0738495
2.30942	0.249012	0.0805029
2.31234	0.220547	0.0735492
2.31526	0.215216	0.0616267
2.31817	0.243113	0.0758209
2.32107	0.199102	0.0637045
2.32398	0.193501	0.0411958
2.32687	0.210870	0.0465596
2.32976	0.214117	0.0582992
2.33265	0.227129	0.0577418
2.33553	0.190132	0.0453996
2.33840	0.220726	0.0625409
2.34127	0.221072	0.0741945
2.34414	0.202080	0.0436364
2.34700	0.223077	0.0526368
2.34985	0.224421	0.0802421
2.35271	0.215738	0.0696018
2.35555	0.201813	0.0454121
2.35839	0.219724	0.0582964
2.36123	0.184473	0.0689086
2.36407	0.231850	0.0615480
2.36689	0.240630	0.0655713
2.36972	0.218596	0.0407468
2.37254	0.230509	0.0670915
2.37535	0.207277	0.0486673
2.37817	0.170253	0.0409921
2.38097	0.202880	0.0403610
2.38378	0.195804	0.0443589
2.38658	0.206587	0.0447837
2.38937	0.222134	0.0661136
2.39216	0.219122	0.0475825
2.39495	0.224762	0.0558166
2.39774	0.213297	0.0618595
2.40052	0.224173	0.0737285
2.40330	0.214035	0.0707850
2.40607	0.205264	0.0403472
2.40884	0.213771	0.0532147
2.41161	0.244706	0.0420948
2.41438	0.205996	0.0463080
2.41714	0.216518	0.0712053
2.41990	0.228940	0.109433
2.42266	0.239468	0.0537120
2.42542	0.224741	0.0687087
2.42817	0.227824	0.0587555
2.43093	0.209413	0.0424747
2.43368	0.217019	0.0572695
2.43643	0.188091	0.0337565
2.43917	0.190213	0.0705359
2.44192	0.209976	0.0458497
2.44467	0.200782	0.0435829
2.44741	0.181033	0.0627887
2.45015	0.197678	0.0935420
2.45290	0.206834	0.0672891
2.45564	0.209633	0.0752587
2.45839	0.206264	0.0560943
2.46113	0.145198	0.0598842
2.46387	0.194727	0.0837689
2.46662	0.204503	0.0494678
2.46937	0.182148	0.0621659
2.47211	0.159650	0.0522028
2.47486	0.164549	0.0382197
2.47761	0.168795	0.0168791
2.48037	0.196461	0.0331990
2.48312	0.155876	0.0108224
2.48588	0.201849	0.0185738
2.48864	0.117683	0.0480062
2.49141	0.107743	0.0117555
2.49417	0.162795	0.0452199
2.49695	0.130011	0.0410004
2.49972	0.156341	0.0131820
2.50250	0.139563	0.0609672
2.50529	0.151069	0.0327478
2.50808	0.101956	0.00867903
2.51088	0.198985	0.0141976
2.51368	0.0744413	0.0749091
2.51650	0.203640	0.0600953
2.51931	0.0944357	0.00908153
2.52214	0.180273	0.172948
2.52497	0.248000	0.0413356
2.52781	0.0666530	0.0272385
2.53066	0.130042	0.130197
2.53352	-0.0475247	0.170979
2.53639	-0.0589118	0.133909
2.53927	0.334454	0.0259170
2.54216	0.150643	0.233475
2.54506	0.124491	0.184876
2.54797	-0.264333	0.206131
2.55090	0.127008	0.0468862
2.55384	0.356022	0.106263
2.55679	-0.0270609	0.141200
2.55976	0.0812580	0.148395
