#  ----------------------------------------------------------------------------------
# SpeX prism spectrum of KPNO 1 (J04151471+2800096)
# Originally observed on 2004 Nov 11
# Average resolution = 75
# Originally published in Muench et al. (2007) AJ, 134, 411
#
# PLEASE CITE THE ORIGINAL DATA REFERENCE WHEN PUBLISHING OR PRESENTING THESE DATA
#
# Optical spectral type: M8.5
# J magnitude = 15.101
# H magnitude = 14.247
# Ks magnitude = 13.772
#
#  Wavelength (micron)   F_lambda (normalized)  Noise (normalized as F_lambda)
#  ----------------------------------------------------------------------------------
0.652595	-0.725586	-0.00000
0.654802	0.597714	0.00000
0.656999	0.541580	0.00000
0.659187	-0.298240	-0.00000
0.661366	0.0752886	0.00000
0.663539	0.408108	0.00000
0.665705	-0.354925	-0.00000
0.667866	0.461158	0.00000
0.670023	0.0258213	0.00000
0.672176	0.266138	0.00000
0.674326	-0.00552874	-0.00000
0.676474	-0.468859	-0.00000
0.678621	-0.173010	-0.00000
0.680768	-0.0434620	-0.00000
0.682915	0.0594925	0.00000
0.685064	-0.0402586	-0.00000
0.687214	0.166293	0.00000
0.689367	-0.0977625	-0.00000
0.691523	0.210787	0.00000
0.693683	0.743346	0.00000
0.695848	0.236099	0.00000
0.698018	-0.163489	-0.00000
0.700194	0.193305	0.00000
0.702376	0.277825	0.00000
0.704565	0.344293	0.00000
0.706762	0.311543	0.00000
0.708968	0.243948	0.00000
0.711182	0.0519001	0.00000
0.713405	0.00199101	0.00000
0.715638	-0.00265707	-0.00000
0.717881	0.216255	0.00000
0.720135	-0.163948	-0.00000
0.722401	0.0616393	0.00000
0.724678	-0.147243	-0.00000
0.726967	0.231833	0.00000
0.729268	0.147302	0.00000
0.731582	0.216504	0.00000
0.733910	0.0950490	0.00000
0.736251	0.264696	0.00000
0.738606	-0.100002	-0.00000
0.740976	0.261103	0.00000
0.743361	0.214736	0.00000
0.745760	-0.0314199	-0.00000
0.748175	0.218738	0.00000
0.750605	0.305152	0.00000
0.753051	0.240206	0.00000
0.755514	0.268769	0.00000
0.757993	0.318872	0.00000
0.760489	0.221652	0.00000
0.763001	0.191828	0.00000
0.765531	0.360539	0.00000
0.768078	0.237250	0.00000
0.770643	0.00735129	0.00000
0.773226	0.0443492	0.00000
0.775827	0.0644932	0.00000
0.778445	0.115994	0.00000
0.781083	0.122735	0.00000
0.783738	0.172262	0.00000
0.786412	0.174591	0.00000
0.789105	0.206616	0.00000
0.791817	0.157361	0.00000
0.794548	0.0905438	0.00000
0.797298	0.156640	0.00000
0.800067	0.197941	0.00000
0.802855	0.183312	0.00000
0.805663	0.320715	0.00000
0.808490	0.403943	0.00000
0.811337	0.381472	0.00000
0.814203	0.397741	0.00000
0.817089	0.361049	0.00000
0.819995	0.451910	0.00000
0.822920	0.427869	0.00000
0.825865	0.381325	0.00000
0.828829	0.337584	0.00000
0.831813	0.366626	0.00000
0.834817	0.343116	0.00000
0.837841	0.353082	0.00000
0.840884	0.319381	0.00000
0.843947	0.262687	0.00000
0.847030	0.211543	0.00000
0.850132	0.209286	0.00000
0.853254	0.173788	0.00000
0.856396	0.221671	0.00000
0.859557	0.257862	0.00000
0.862737	0.227882	0.00000
0.865937	0.300049	0.00000
0.869156	0.247491	0.00000
0.872394	0.299354	0.00000
0.875652	0.350427	0.00000
0.878928	0.425277	0.00000
0.882224	0.494988	0.00000
0.885538	0.441844	0.00000
0.888871	0.465636	0.00000
0.892223	0.513552	0.00000
0.895593	0.547408	0.00000
0.898982	0.560683	0.00000
0.902389	0.573890	0.00000
0.905815	0.579299	0.00000
0.909258	0.651798	0.00000
0.912719	0.682603	0.00000
0.916199	0.738971	0.00000
0.919696	0.665823	0.00000
0.923210	0.678512	0.00000
0.926742	0.604638	0.00000
0.930292	0.621001	0.00000
0.933858	0.581126	0.00000
0.937441	0.585467	0.00000
0.941041	0.614109	0.00000
0.944658	0.630517	0.00000
0.948291	0.715622	0.00000
0.951941	0.699999	0.00000
0.955607	0.706406	0.00000
0.959288	0.739147	0.00000
0.962986	0.763088	0.00000
0.966699	0.752780	0.00000
0.970428	0.782970	0.00000
0.974172	0.783790	0.00000
0.977930	0.831076	0.00000
0.981704	0.814162	0.00000
0.985493	0.804495	0.00000
0.989296	0.821099	0.00000
0.993113	0.827909	0.00000
0.996945	0.859497	0.00000
1.00079	0.811042	0.00000
1.00465	0.845830	0.00000
1.00852	0.880922	0.00000
1.01241	0.863724	0.00000
1.01631	0.865981	0.00000
1.02022	0.905028	0.00000
1.02415	0.916151	0.00000
1.02808	0.952132	0.00000
1.03203	0.909353	0.00000
1.03600	0.938754	0.00000
1.03997	0.925066	0.00000
1.04396	0.922442	0.00000
1.04795	0.940585	0.00000
1.05196	0.902610	0.00000
1.05598	0.866384	0.00000
1.06001	0.877198	0.00000
1.06405	0.863316	0.00000
1.06810	0.897132	0.00000
1.07217	0.931292	0.00000
1.07624	0.994359	0.00000
1.08032	0.987779	0.00000
1.08441	1.05818	0.00000
1.08851	1.04107	0.00000
1.09262	1.03986	0.00000
1.09674	1.01233	0.00000
1.10087	0.988227	0.00000
1.10501	0.990192	0.00000
1.10915	0.977690	0.00000
1.11331	0.949533	0.00000
1.11747	0.960781	0.00000
1.12164	0.960527	0.00000
1.12581	0.969672	0.00000
1.13000	0.952230	0.00000
1.13419	0.955675	0.00000
1.13839	0.948714	0.00000
1.14259	0.975088	0.00000
1.14680	0.973085	0.00000
1.15102	0.995434	0.00000
1.15524	0.986850	0.00000
1.15947	1.02076	0.00000
1.16371	0.980597	0.00000
1.16795	0.991063	0.00000
1.17219	0.956910	0.00000
1.17645	0.948530	0.00000
1.18070	0.922835	0.00000
1.18496	0.918604	0.00000
1.18923	0.911573	0.00000
1.19350	0.900088	0.00000
1.19777	0.911196	0.00000
1.20205	0.901337	0.00000
1.20633	0.899960	0.00000
1.21061	0.907730	0.00000
1.21490	0.945665	0.00000
1.21919	0.972616	0.00000
1.22349	0.979775	0.00000
1.22779	0.982222	0.00000
1.23209	0.970852	0.00000
1.23639	0.982814	0.00000
1.24069	0.949234	0.00000
1.24500	0.943205	0.00000
1.24931	0.933726	0.00000
1.25362	0.953774	0.00000
1.25793	0.946337	0.00000
1.26224	0.960349	0.00000
1.26656	0.960145	0.00000
1.27087	0.991286	0.00000
1.27519	0.994214	0.00000
1.27950	0.990909	0.00000
1.28382	0.993748	0.00000
1.28814	0.986569	0.00000
1.29246	0.997885	0.00000
1.29678	1.00795	0.00000
1.30109	1.00039	0.00000
1.30541	0.991571	0.00000
1.30973	0.980752	0.00000
1.31405	0.985983	0.00000
1.31836	0.963432	0.00000
1.32268	0.956330	0.00000
1.32699	0.908520	0.00000
1.33130	0.859705	0.00000
1.33562	0.798188	0.00000
1.33993	0.721597	0.00000
1.34424	0.662517	0.00000
1.34854	0.654878	0.00000
1.35285	0.618744	0.00000
1.35715	0.642797	0.00000
1.36145	0.605647	0.00000
1.36575	0.607647	0.00000
1.37005	0.576669	0.00000
1.37434	0.567206	0.00000
1.37863	0.595132	0.00000
1.38292	0.588114	0.00000
1.38721	0.584740	0.00000
1.39149	0.575843	0.00000
1.39577	0.566016	0.00000
1.40005	0.576076	0.00000
1.40432	0.529163	0.00000
1.40859	0.524000	0.00000
1.41286	0.507918	0.00000
1.41712	0.511724	0.00000
1.42138	0.492293	0.00000
1.42564	0.506971	0.00000
1.42989	0.485193	0.00000
1.43413	0.508857	0.00000
1.43838	0.506919	0.00000
1.44262	0.495865	0.00000
1.44685	0.489911	0.00000
1.45108	0.507785	0.00000
1.45531	0.504780	0.00000
1.45953	0.498902	0.00000
1.46375	0.501183	0.00000
1.46796	0.501660	0.00000
1.47217	0.484780	0.00000
1.47637	0.478319	0.00000
1.48057	0.480980	0.00000
1.48476	0.490064	0.00000
1.48895	0.495312	0.00000
1.49313	0.514597	0.00000
1.49731	0.505235	0.00000
1.50148	0.516345	0.00000
1.50564	0.502092	0.00000
1.50980	0.514325	0.00000
1.51396	0.510354	0.00000
1.51811	0.525508	0.00000
1.52225	0.519417	0.00000
1.52639	0.534153	0.00000
1.53052	0.535143	0.00000
1.53465	0.533427	0.00000
1.53877	0.538864	0.00000
1.54289	0.541772	0.00000
1.54700	0.536758	0.00000
1.55110	0.545036	0.00000
1.55520	0.541876	0.00000
1.55929	0.552814	0.00000
1.56338	0.552172	0.00000
1.56746	0.566300	0.00000
1.57153	0.570286	0.00000
1.57560	0.575559	0.00000
1.57966	0.573159	0.00000
1.58371	0.591187	0.00000
1.58776	0.585206	0.00000
1.59180	0.593413	0.00000
1.59584	0.597606	0.00000
1.59987	0.614864	0.00000
1.60389	0.601481	0.00000
1.60791	0.607425	0.00000
1.61192	0.601901	0.00000
1.61592	0.610588	0.00000
1.61992	0.613614	0.00000
1.62391	0.629985	0.00000
1.62789	0.622439	0.00000
1.63187	0.639850	0.00000
1.63584	0.616589	0.00000
1.63981	0.629640	0.00000
1.64376	0.625141	0.00000
1.64772	0.634165	0.00000
1.65166	0.639356	0.00000
1.65560	0.642004	0.00000
1.65953	0.644793	0.00000
1.66346	0.663337	0.00000
1.66737	0.646596	0.00000
1.67129	0.661454	0.00000
1.67519	0.645653	0.00000
1.67909	0.660148	0.00000
1.68298	0.656000	0.00000
1.68687	0.652050	0.00000
1.69075	0.647920	0.00000
1.69462	0.643481	0.00000
1.69849	0.631511	0.00000
1.70235	0.628658	0.00000
1.70620	0.621463	0.00000
1.71005	0.612566	0.00000
1.71389	0.598017	0.00000
1.71772	0.591609	0.00000
1.72155	0.579637	0.00000
1.72537	0.566436	0.00000
1.72919	0.550684	0.00000
1.73299	0.549354	0.00000
1.73679	0.536997	0.00000
1.74059	0.533209	0.00000
1.74438	0.513637	0.00000
1.74816	0.514664	0.00000
1.75194	0.504756	0.00000
1.75571	0.501956	0.00000
1.75947	0.494279	0.00000
1.76323	0.485897	0.00000
1.76698	0.474413	0.00000
1.77072	0.459922	0.00000
1.77446	0.456080	0.00000
1.77819	0.454682	0.00000
1.78192	0.436156	0.00000
1.78564	0.424276	0.00000
1.78935	0.422513	0.00000
1.79306	0.416710	0.00000
1.79676	0.401893	0.00000
1.80046	0.401143	0.00000
1.80414	0.398402	0.00000
1.80783	0.387013	0.00000
1.81150	0.393621	0.00000
1.81518	0.397588	0.00000
1.81884	0.387597	0.00000
1.82250	0.377262	0.00000
1.82615	0.376181	0.00000
1.82980	0.371828	0.00000
1.83344	0.390840	0.00000
1.83708	0.385165	0.00000
1.84071	0.363390	0.00000
1.84433	0.362132	0.00000
1.84795	0.339316	0.00000
1.85157	0.351034	0.00000
1.85517	0.329500	0.00000
1.85878	0.324785	0.00000
1.86237	0.324545	0.00000
1.86596	0.334854	0.00000
1.86955	0.344651	0.00000
1.87313	0.339993	0.00000
1.87670	0.309164	0.00000
1.88027	0.303430	0.00000
1.88383	0.318634	0.00000
1.88739	0.336253	0.00000
1.89094	0.329941	0.00000
1.89449	0.339264	0.00000
1.89803	0.341057	0.00000
1.90157	0.340754	0.00000
1.90510	0.337877	0.00000
1.90863	0.331639	0.00000
1.91215	0.351705	0.00000
1.91566	0.335550	0.00000
1.91917	0.330611	0.00000
1.92268	0.346744	0.00000
1.92618	0.343236	0.00000
1.92967	0.341997	0.00000
1.93316	0.332697	0.00000
1.93665	0.327097	0.00000
1.94013	0.326982	0.00000
1.94360	0.323322	0.00000
1.94707	0.330058	0.00000
1.95054	0.325670	0.00000
1.95400	0.321502	0.00000
1.95745	0.332491	0.00000
1.96090	0.311614	0.00000
1.96435	0.336598	0.00000
1.96779	0.333227	0.00000
1.97122	0.322817	0.00000
1.97465	0.311845	0.00000
1.97808	0.311851	0.00000
1.98150	0.296603	0.00000
1.98492	0.291171	0.00000
1.98833	0.288887	0.00000
1.99174	0.295064	0.00000
1.99514	0.296664	0.00000
1.99854	0.302897	0.00000
2.00193	0.304698	0.00000
2.00532	0.293882	0.00000
2.00870	0.273102	0.00000
2.01208	0.286564	0.00000
2.01545	0.306479	0.00000
2.01882	0.289897	0.00000
2.02219	0.290829	0.00000
2.02555	0.297019	0.00000
2.02891	0.299300	0.00000
2.03226	0.299430	0.00000
2.03560	0.298233	0.00000
2.03895	0.291855	0.00000
2.04228	0.291064	0.00000
2.04562	0.274179	0.00000
2.04895	0.290897	0.00000
2.05227	0.295060	0.00000
2.05559	0.286846	0.00000
2.05891	0.283525	0.00000
2.06222	0.290033	0.00000
2.06552	0.294297	0.00000
2.06882	0.303012	0.00000
2.07212	0.285084	0.00000
2.07541	0.283663	0.00000
2.07870	0.292638	0.00000
2.08198	0.295535	0.00000
2.08526	0.296100	0.00000
2.08854	0.287144	0.00000
2.09181	0.297163	0.00000
2.09507	0.293542	0.00000
2.09833	0.301601	0.00000
2.10159	0.299378	0.00000
2.10484	0.305554	0.00000
2.10809	0.307656	0.00000
2.11133	0.308876	0.00000
2.11457	0.297614	0.00000
2.11780	0.305612	0.00000
2.12103	0.306052	0.00000
2.12426	0.306575	0.00000
2.12748	0.311819	0.00000
2.13069	0.305235	0.00000
2.13390	0.307226	0.00000
2.13711	0.311856	0.00000
2.14031	0.312748	0.00000
2.14351	0.311619	0.00000
2.14670	0.307319	0.00000
2.14989	0.315409	0.00000
2.15307	0.315624	0.00000
2.15625	0.315387	0.00000
2.15942	0.322262	0.00000
2.16259	0.320162	0.00000
2.16575	0.324611	0.00000
2.16891	0.329892	0.00000
2.17207	0.323699	0.00000
2.17522	0.326196	0.00000
2.17836	0.314488	0.00000
2.18150	0.321574	0.00000
2.18464	0.326892	0.00000
2.18777	0.320668	0.00000
2.19089	0.328173	0.00000
2.19401	0.320106	0.00000
2.19713	0.326824	0.00000
2.20024	0.329504	0.00000
2.20334	0.319472	0.00000
2.20645	0.325437	0.00000
2.20954	0.318532	0.00000
2.21263	0.317498	0.00000
2.21572	0.320146	0.00000
2.21880	0.330222	0.00000
2.22188	0.329989	0.00000
2.22495	0.330931	0.00000
2.22801	0.329942	0.00000
2.23107	0.330637	0.00000
2.23413	0.333651	0.00000
2.23718	0.324494	0.00000
2.24023	0.327681	0.00000
2.24327	0.335169	0.00000
2.24630	0.323744	0.00000
2.24933	0.325248	0.00000
2.25236	0.327654	0.00000
2.25538	0.329192	0.00000
2.25839	0.323864	0.00000
2.26140	0.331560	0.00000
2.26441	0.324312	0.00000
2.26741	0.323263	0.00000
2.27040	0.321048	0.00000
2.27339	0.330955	0.00000
2.27637	0.325060	0.00000
2.27935	0.319100	0.00000
2.28232	0.326768	0.00000
2.28529	0.323686	0.00000
2.28825	0.320803	0.00000
2.29121	0.313473	0.00000
2.29417	0.303426	0.00000
2.29711	0.295966	0.00000
2.30006	0.294712	0.00000
2.30299	0.294318	0.00000
2.30592	0.291318	0.00000
2.30885	0.296241	0.00000
2.31177	0.309698	0.00000
2.31469	0.294385	0.00000
2.31760	0.288813	0.00000
2.32051	0.281950	0.00000
2.32341	0.272279	0.00000
2.32630	0.284377	0.00000
2.32920	0.272649	0.00000
2.33208	0.268047	0.00000
2.33496	0.268720	0.00000
2.33784	0.279320	0.00000
2.34071	0.272424	0.00000
2.34358	0.272935	0.00000
2.34644	0.256733	0.00000
2.34930	0.267349	0.00000
2.35215	0.255100	0.00000
2.35500	0.241007	0.00000
2.35784	0.250544	0.00000
2.36068	0.235460	0.00000
2.36351	0.242937	0.00000
2.36634	0.248393	0.00000
2.36917	0.257387	0.00000
2.37199	0.244603	0.00000
2.37480	0.242772	0.00000
2.37761	0.249001	0.00000
2.38042	0.256360	0.00000
2.38323	0.238812	0.00000
2.38603	0.227644	0.00000
2.38882	0.234954	0.00000
2.39162	0.226518	0.00000
2.39441	0.224133	0.00000
2.39719	0.232633	0.00000
2.39997	0.226194	0.00000
2.40275	0.225408	0.00000
2.40553	0.225917	0.00000
2.40830	0.223509	0.00000
2.41107	0.215570	0.00000
2.41384	0.209817	0.00000
2.41660	0.212794	0.00000
2.41936	0.201846	0.00000
2.42212	0.204342	0.00000
2.42488	0.210548	0.00000
2.42763	0.200977	0.00000
2.43039	0.189669	0.00000
2.43314	0.201797	0.00000
2.43589	0.198050	0.00000
2.43864	0.186838	0.00000
2.44138	0.190290	0.00000
2.44413	0.183914	0.00000
2.44687	0.192302	0.00000
2.44962	0.180862	0.00000
2.45236	0.182475	0.00000
2.45510	0.182239	0.00000
2.45785	0.170507	0.00000
2.46059	0.179620	0.00000
2.46334	0.164048	0.00000
2.46608	0.175972	0.00000
2.46883	0.164089	0.00000
2.47157	0.169176	0.00000
2.47432	0.158647	0.00000
2.47707	0.155178	0.00000
2.47983	0.173806	0.00000
2.48258	0.153257	0.00000
2.48534	0.153379	0.00000
2.48810	0.166010	0.00000
2.49086	0.161576	0.00000
2.49363	0.182428	0.00000
2.49640	0.140068	0.00000
2.49918	0.143286	0.00000
2.50196	0.154310	0.00000
2.50475	0.145651	0.00000
2.50754	0.154870	0.00000
2.51033	0.155839	0.00000
2.51314	0.136356	0.00000
2.51594	0.123193	0.00000
2.51876	0.140316	0.00000
2.52158	0.103325	0.00000
2.52442	0.176992	0.00000
2.52726	0.109336	0.00000
2.53010	0.138127	0.00000
2.53296	0.179423	0.00000
2.53583	0.139140	0.00000
2.53871	0.183691	0.00000
2.54159	0.158661	0.00000
2.54449	0.111303	0.00000
2.54740	0.0939136	0.00000
2.55033	0.150796	0.00000
2.55326	0.139123	0.00000
2.55621	0.105917	0.00000
2.55917	0.181205	0.00000
2.56215	0.143475	0.00000
